Typical Measured Spectrum of Semrock NF03-561E Optical Filter	
For wavelengths between 320 and 1120 nm, values near or below 3e-7 (Optical Density 6.5) are measurement noise limited.
For wavelengths < 320 nm and > 1120 nm, values near or below 3e-6 (Optical Density 5.5) are measurement noise limited. 
Data format:  Wavelength (nm) <tab> Transmission (0 to 1)
345.0	0.01545
345.2	0.01548
345.4	0.01552
345.6	0.01555
345.8	0.01547
346.0	0.01548
346.2	0.01549
346.4	0.01547
346.6	0.01549
346.8	0.0156
347.0	0.0157
347.2	0.01606
347.4	0.0164
347.6	0.01723
347.8	0.01826
348.0	0.02968
348.2	0.0872
348.4	0.14976
348.6	0.27319
348.8	0.4619
349.0	0.5929
349.2	0.62422
349.4	0.64056
349.6	0.65333
349.8	0.66447
350.0	0.67283
350.2	0.68049
350.4	0.68756
350.6	0.69118
350.8	0.69511
351.0	0.69616
351.2	0.70091
351.4	0.70318
351.6	0.70258
351.8	0.70203
352.0	0.70135
352.2	0.70425
352.4	0.69603
352.6	0.6994
352.8	0.70443
353.0	0.70238
353.2	0.70525
353.4	0.70785
353.6	0.71428
353.8	0.71493
354.0	0.71147
354.2	0.71747
354.4	0.72136
354.6	0.72175
354.8	0.72622
355.0	0.73021
355.2	0.73751
355.4	0.74252
355.6	0.74237
355.8	0.74729
356.0	0.74969
356.2	0.74878
356.4	0.75215
356.6	0.74976
356.8	0.74594
357.0	0.7508
357.2	0.75314
357.4	0.7503
357.6	0.75363
357.8	0.75843
358.0	0.75721
358.2	0.76078
358.4	0.76432
358.6	0.76076
358.8	0.76053
359.0	0.76925
359.2	0.77411
359.4	0.77529
359.6	0.77429
359.8	0.77024
360.0	0.76904
360.2	0.775
360.4	0.77579
360.6	0.77411
360.8	0.77803
361.0	0.78207
361.2	0.77677
361.4	0.77746
361.6	0.78455
361.8	0.78762
362.0	0.78555
362.2	0.78897
362.4	0.79422
362.6	0.79124
362.8	0.78745
363.0	0.79169
363.2	0.79801
363.4	0.79775
363.6	0.79659
363.8	0.79906
364.0	0.79933
364.2	0.79569
364.4	0.79692
364.6	0.8013
364.8	0.79927
365.0	0.79885
365.2	0.80664
365.4	0.80512
365.6	0.80136
365.8	0.80708
366.0	0.81166
366.2	0.8065
366.4	0.80065
366.6	0.80444
366.8	0.81355
367.0	0.81202
367.2	0.80814
367.4	0.81192
367.6	0.81744
367.8	0.81696
368.0	0.81483
368.2	0.81787
368.4	0.82385
368.6	0.81997
368.8	0.81633
369.0	0.82231
369.2	0.83084
369.4	0.82972
369.6	0.82261
369.8	0.82304
370.0	0.832
370.2	0.83799
370.4	0.83644
370.6	0.83681
370.8	0.84152
371.0	0.84215
371.2	0.83583
371.4	0.83347
371.6	0.84037
371.8	0.84954
372.0	0.8482
372.2	0.84183
372.4	0.84105
372.6	0.84842
372.8	0.84622
373.0	0.83822
373.2	0.83485
373.4	0.84444
373.6	0.8583
373.8	0.86055
374.0	0.85145
374.2	0.84998
374.4	0.85848
374.6	0.86481
374.8	0.86236
375.0	0.86234
375.2	0.86587
375.4	0.87411
375.6	0.87795
375.8	0.8749
376.0	0.87404
376.2	0.87851
376.4	0.87964
376.6	0.87368
376.8	0.86653
377.0	0.86821
377.2	0.87426
377.4	0.87733
377.6	0.87335
377.8	0.8701
378.0	0.87363
378.2	0.8816
378.4	0.88552
378.6	0.88114
378.8	0.87891
379.0	0.88425
379.2	0.88989
379.4	0.89102
379.6	0.88389
379.8	0.88184
380.0	0.887
380.2	0.89463
380.4	0.89613
380.6	0.89494
380.8	0.8951
381.0	0.90071
381.2	0.90672
381.4	0.9032
381.6	0.89472
381.8	0.89181
382.0	0.89633
382.2	0.90232
382.4	0.90448
382.6	0.90018
382.8	0.90123
383.0	0.90609
383.2	0.91147
383.4	0.90971
383.6	0.90193
383.8	0.89873
384.0	0.90152
384.2	0.90852
384.4	0.90909
384.6	0.90492
384.8	0.90181
385.0	0.90514
385.2	0.91303
385.4	0.9176
385.6	0.91411
385.8	0.90903
386.0	0.91126
386.2	0.91925
386.4	0.92534
386.6	0.91806
386.8	0.9084
387.0	0.90403
387.2	0.90869
387.4	0.91691
387.6	0.92139
387.8	0.91703
388.0	0.91169
388.2	0.91228
388.4	0.91875
388.6	0.92256
388.8	0.91929
389.0	0.91275
389.2	0.91079
389.4	0.91442
389.6	0.91939
389.8	0.91888
390.0	0.91349
390.2	0.90858
390.4	0.91042
390.6	0.91925
390.8	0.92483
391.0	0.92444
391.2	0.91994
391.4	0.91783
391.6	0.92187
391.8	0.92609
392.0	0.92655
392.2	0.92082
392.4	0.91386
392.6	0.91347
392.8	0.92031
393.0	0.92557
393.2	0.92538
393.4	0.92034
393.6	0.91731
393.8	0.92152
394.0	0.92841
394.2	0.93323
394.4	0.93105
394.6	0.92401
394.8	0.91991
395.0	0.92218
395.2	0.92718
395.4	0.92937
395.6	0.92655
395.8	0.92127
396.0	0.92093
396.2	0.92547
396.4	0.93336
396.6	0.93777
396.8	0.93499
397.0	0.9291
397.2	0.92727
397.4	0.93076
397.6	0.93509
397.8	0.9345
398.0	0.92917
398.2	0.92343
398.4	0.92208
398.6	0.92612
398.8	0.93292
399.0	0.93598
399.2	0.93126
399.4	0.92529
399.6	0.92356
399.8	0.92666
400.0	0.93198
400.2	0.93357
400.4	0.93129
400.6	0.92544
400.8	0.92486
401.0	0.92704
401.2	0.93253
401.4	0.93466
401.6	0.93165
401.8	0.92636
402.0	0.92407
402.2	0.9269
402.4	0.93265
402.6	0.93627
402.8	0.93427
403.0	0.9298
403.2	0.92591
403.4	0.92834
403.6	0.93285
403.8	0.93696
404.0	0.93446
404.2	0.93022
404.4	0.92497
404.6	0.92428
404.8	0.92832
405.0	0.93279
405.2	0.93342
405.4	0.92851
405.6	0.92308
405.8	0.92003
406.0	0.9218
406.2	0.92575
406.4	0.92886
406.6	0.92667
406.8	0.92139
407.0	0.91797
407.2	0.9183
407.4	0.9237
407.6	0.92866
407.8	0.9291
408.0	0.92469
408.2	0.92119
408.4	0.91986
408.6	0.92505
408.8	0.92993
409.0	0.93304
409.2	0.93183
409.4	0.92621
409.6	0.92172
409.8	0.9228
410.0	0.92717
410.2	0.93089
410.4	0.93097
410.6	0.9257
410.8	0.91926
411.0	0.91598
411.2	0.91768
411.4	0.92359
411.6	0.92927
411.8	0.92883
412.0	0.92371
412.2	0.91808
412.4	0.91568
412.6	0.9179
412.8	0.92407
413.0	0.92809
413.2	0.92842
413.4	0.92375
413.6	0.91997
413.8	0.91969
414.0	0.92321
414.2	0.92796
414.4	0.93156
414.6	0.92921
414.8	0.92541
415.0	0.92108
415.2	0.92207
415.4	0.92607
415.6	0.93198
415.8	0.93334
416.0	0.93124
416.2	0.92683
416.4	0.92211
416.6	0.92226
416.8	0.92584
417.0	0.93088
417.2	0.93318
417.4	0.9308
417.6	0.92585
417.8	0.92311
418.0	0.92273
418.2	0.92617
418.4	0.9307
418.6	0.93199
418.8	0.92959
419.0	0.92347
419.2	0.91929
419.4	0.92052
419.6	0.92403
419.8	0.92876
420.0	0.93318
420.2	0.93196
420.4	0.92903
420.6	0.92582
420.8	0.926
421.0	0.92932
421.2	0.93443
421.4	0.93823
421.6	0.93681
421.8	0.93312
422.0	0.93094
422.2	0.9305
422.4	0.93348
422.6	0.93729
422.8	0.94039
423.0	0.94015
423.2	0.93667
423.4	0.93273
423.6	0.93028
423.8	0.93194
424.0	0.93427
424.2	0.93892
424.4	0.9404
424.6	0.93842
424.8	0.93392
425.0	0.93101
425.2	0.93052
425.4	0.93276
425.6	0.93589
425.8	0.93665
426.0	0.9355
426.2	0.93244
426.4	0.92953
426.6	0.92963
426.8	0.93189
427.0	0.93624
427.2	0.93904
427.4	0.94016
427.6	0.93782
427.8	0.93443
428.0	0.93288
428.2	0.93447
428.4	0.93876
428.6	0.94294
428.8	0.94543
429.0	0.94498
429.2	0.94221
429.4	0.93855
429.6	0.93696
429.8	0.93884
430.0	0.94236
430.2	0.94524
430.4	0.94613
430.6	0.94361
430.8	0.94016
431.0	0.93717
431.2	0.9366
431.4	0.93932
431.6	0.94242
431.8	0.94475
432.0	0.94429
432.2	0.94056
432.4	0.93622
432.6	0.93462
432.8	0.93572
433.0	0.93896
433.2	0.94431
433.4	0.9458
433.6	0.9452
433.8	0.94157
434.0	0.93871
434.2	0.93588
434.4	0.93704
434.6	0.94075
434.8	0.9445
435.0	0.93609
435.2	0.93311
435.4	0.92929
435.6	0.92821
435.8	0.92974
436.0	0.93514
436.2	0.93967
436.4	0.94199
436.6	0.94115
436.8	0.93733
437.0	0.93329
437.2	0.93152
437.4	0.93295
437.6	0.9366
437.8	0.93984
438.0	0.94119
438.2	0.93995
438.4	0.93644
438.6	0.93215
438.8	0.92985
439.0	0.93155
439.2	0.93483
439.4	0.93844
439.6	0.93991
439.8	0.93825
440.0	0.93466
440.2	0.92988
440.4	0.92835
440.6	0.93001
440.8	0.93428
441.0	0.93885
441.2	0.94198
441.4	0.94069
441.6	0.93754
441.8	0.9336
442.0	0.93064
442.2	0.93096
442.4	0.93478
442.6	0.9395
442.8	0.9431
443.0	0.94368
443.2	0.94227
443.4	0.93805
443.6	0.93449
443.8	0.93448
444.0	0.93721
444.2	0.9419
444.4	0.9455
444.6	0.94774
444.8	0.94598
445.0	0.94209
445.2	0.93817
445.4	0.93667
445.6	0.93782
445.8	0.94164
446.0	0.94527
446.2	0.94711
446.4	0.94697
446.6	0.9435
446.8	0.93876
447.0	0.93633
447.2	0.93663
447.4	0.93888
447.6	0.94345
447.8	0.94633
448.0	0.94753
448.2	0.94504
448.4	0.9409
448.6	0.93723
448.8	0.93608
449.0	0.93758
449.2	0.94174
449.4	0.94678
449.6	0.94868
449.8	0.94823
450.0	0.94483
450.2	0.9405
450.4	0.9381
450.6	0.93938
450.8	0.94467
451.0	0.95156
451.2	0.95776
451.4	0.96132
451.6	0.95929
451.8	0.95415
452.0	0.94782
452.2	0.94337
452.4	0.94165
452.6	0.94399
452.8	0.94913
453.0	0.95352
453.2	0.9553
453.4	0.9541
453.6	0.94938
453.8	0.94404
454.0	0.94102
454.2	0.94093
454.4	0.94473
454.6	0.95007
454.8	0.95499
455.0	0.95676
455.2	0.95528
455.4	0.95077
455.6	0.94484
455.8	0.94041
456.0	0.94014
456.2	0.94247
456.4	0.9476
456.6	0.95277
456.8	0.95638
457.0	0.95582
457.2	0.95303
457.4	0.94934
457.6	0.94619
457.8	0.94609
458.0	0.94838
458.2	0.95202
458.4	0.95577
458.6	0.95702
458.8	0.95588
459.0	0.95205
459.2	0.94816
459.4	0.94655
459.6	0.94653
459.8	0.94989
460.0	0.95612
460.2	0.96089
460.4	0.96255
460.6	0.96205
460.8	0.95727
461.0	0.95172
461.2	0.94676
461.4	0.94426
461.6	0.94474
461.8	0.94866
462.0	0.9533
462.2	0.95628
462.4	0.9578
462.6	0.95613
462.8	0.95271
463.0	0.94925
463.2	0.94669
463.4	0.94707
463.6	0.94862
463.8	0.95146
464.0	0.95342
464.2	0.95413
464.4	0.95123
464.6	0.94773
464.8	0.94453
465.0	0.94336
465.2	0.94536
465.4	0.94843
465.6	0.95399
465.8	0.95899
466.0	0.96031
466.2	0.95964
466.4	0.95642
466.6	0.95146
466.8	0.94841
467.0	0.94637
467.2	0.94839
467.4	0.95316
467.6	0.95858
467.8	0.96266
468.0	0.96408
468.2	0.96134
468.4	0.95695
468.6	0.95172
468.8	0.9482
469.0	0.94836
469.2	0.95085
469.4	0.95473
469.6	0.9592
469.8	0.96116
470.0	0.96008
470.2	0.95687
470.4	0.95194
470.6	0.94674
470.8	0.94452
471.0	0.94433
471.2	0.94726
471.4	0.95182
471.6	0.95614
471.8	0.95856
472.0	0.95834
472.2	0.95531
472.4	0.95127
472.6	0.94751
472.8	0.94518
473.0	0.9453
473.2	0.94799
473.4	0.95103
473.6	0.95418
473.8	0.95643
474.0	0.95595
474.2	0.95429
474.4	0.95171
474.6	0.94925
474.8	0.94859
475.0	0.94913
475.2	0.95155
475.4	0.95427
475.6	0.95628
475.8	0.9569
476.0	0.95569
476.2	0.95334
476.4	0.95033
476.6	0.94862
476.8	0.9476
477.0	0.94935
477.2	0.95181
477.4	0.95422
477.6	0.95628
477.8	0.95637
478.0	0.95402
478.2	0.95102
478.4	0.94772
478.6	0.94502
478.8	0.94452
479.0	0.94597
479.2	0.94931
479.4	0.95267
479.6	0.95558
479.8	0.95617
480.0	0.95551
480.2	0.95271
480.4	0.94943
480.6	0.94634
480.8	0.94422
481.0	0.94456
481.2	0.94632
481.4	0.94877
481.6	0.95196
481.8	0.95335
482.0	0.95342
482.2	0.95183
482.4	0.94961
482.6	0.94738
482.8	0.94598
483.0	0.94652
483.2	0.9481
483.4	0.95041
483.6	0.9537
483.8	0.9551
484.0	0.95515
484.2	0.95493
484.4	0.95339
484.6	0.95001
484.8	0.94881
485.0	0.9485
485.2	0.94969
485.4	0.95178
485.6	0.95416
485.8	0.95528
486.0	0.95656
486.2	0.955
486.4	0.95272
486.6	0.9501
486.8	0.94814
487.0	0.94636
487.2	0.94709
487.4	0.9483
487.6	0.95027
487.8	0.95214
488.0	0.95358
488.2	0.95295
488.4	0.95127
488.6	0.94918
488.8	0.94714
489.0	0.94507
489.2	0.9448
489.4	0.94541
489.6	0.94731
489.8	0.94909
490.0	0.95107
490.2	0.95179
490.4	0.95083
490.6	0.94924
490.8	0.9469
491.0	0.94439
491.2	0.94376
491.4	0.94396
491.6	0.94552
491.8	0.94853
492.0	0.95174
492.2	0.95384
492.4	0.95498
492.6	0.9553
492.8	0.95429
493.0	0.95182
493.2	0.95009
493.4	0.94858
493.6	0.94812
493.8	0.94881
494.0	0.95045
494.2	0.95184
494.4	0.95247
494.6	0.95296
494.8	0.95185
495.0	0.95007
495.2	0.94803
495.4	0.94704
495.6	0.94609
495.8	0.94647
496.0	0.94751
496.2	0.94885
496.4	0.94987
496.6	0.94958
496.8	0.94876
497.0	0.94686
497.2	0.94504
497.4	0.94267
497.6	0.94162
497.8	0.94151
498.0	0.9423
498.2	0.94444
498.4	0.94666
498.6	0.94899
498.8	0.9495
499.0	0.95
499.2	0.94854
499.4	0.94739
499.6	0.94585
499.8	0.94535
500.0	0.94539
500.2	0.94566
500.4	0.94726
500.6	0.95002
500.8	0.95171
501.0	0.95254
501.2	0.95279
501.4	0.95167
501.6	0.94785
501.8	0.94568
502.0	0.94352
502.2	0.94061
502.4	0.94093
502.6	0.9434
502.8	0.94459
503.0	0.94783
503.2	0.95185
503.4	0.95272
503.6	0.95251
503.8	0.95208
504.0	0.9499
504.2	0.94513
504.4	0.94371
504.6	0.94219
504.8	0.94082
505.0	0.94173
505.2	0.94429
505.4	0.94605
505.6	0.94805
505.8	0.94981
506.0	0.95019
506.2	0.94883
506.4	0.94809
506.6	0.94739
506.8	0.94559
507.0	0.94573
507.2	0.94752
507.4	0.94778
507.6	0.94832
507.8	0.94997
508.0	0.94992
508.2	0.94737
508.4	0.94568
508.6	0.94351
508.8	0.94005
509.0	0.93687
509.2	0.93758
509.4	0.93754
509.6	0.93811
509.8	0.94128
510.0	0.94417
510.2	0.94553
510.4	0.9468
510.6	0.94827
510.8	0.94661
511.0	0.94466
511.2	0.94386
511.4	0.9428
511.6	0.94149
511.8	0.94303
512.0	0.94569
512.2	0.94724
512.4	0.94868
512.6	0.95119
512.8	0.95186
513.0	0.95059
513.2	0.94992
513.4	0.9486
513.6	0.9464
513.8	0.94429
514.0	0.94541
514.2	0.94588
514.4	0.94697
514.6	0.94908
514.8	0.95217
515.0	0.95261
515.2	0.95217
515.4	0.95248
515.6	0.95112
515.8	0.94793
516.0	0.94509
516.2	0.94417
516.4	0.94216
516.6	0.9409
516.8	0.94142
517.0	0.94345
517.2	0.94357
517.4	0.94408
517.6	0.94588
517.8	0.94561
518.0	0.94462
518.2	0.94478
518.4	0.94432
518.6	0.94299
518.8	0.94267
519.0	0.94375
519.2	0.9433
519.4	0.94316
519.6	0.94316
519.8	0.94401
520.0	0.94294
520.2	0.94122
520.4	0.94167
520.6	0.94224
520.8	0.94202
521.0	0.94305
521.2	0.94611
521.4	0.9482
521.6	0.94845
521.8	0.95036
522.0	0.95109
522.2	0.94958
522.4	0.94684
522.6	0.9447
522.8	0.94236
523.0	0.93938
523.2	0.9374
523.4	0.93879
523.6	0.94049
523.8	0.94171
524.0	0.9455
524.2	0.94875
524.4	0.94997
524.6	0.95038
524.8	0.9498
525.0	0.94918
525.2	0.94523
525.4	0.94172
525.6	0.94081
525.8	0.94006
526.0	0.93952
526.2	0.94162
526.4	0.94637
526.6	0.9493
526.8	0.95167
527.0	0.95405
527.2	0.95531
527.4	0.95371
527.6	0.95092
527.8	0.94772
528.0	0.94479
528.2	0.94196
528.4	0.93967
528.6	0.93958
528.8	0.94157
529.0	0.94296
529.2	0.94435
529.4	0.94681
529.6	0.94838
529.8	0.94736
530.0	0.94533
530.2	0.94352
530.4	0.9417
530.6	0.93828
530.8	0.9367
531.0	0.93749
531.2	0.9385
531.4	0.93868
531.6	0.94049
531.8	0.94377
532.0	0.94426
532.2	0.94322
532.4	0.94259
532.6	0.94252
532.8	0.94021
533.0	0.93784
533.2	0.93799
533.4	0.93978
533.6	0.9422
533.8	0.94439
534.0	0.94848
534.2	0.95278
534.4	0.95496
534.6	0.95569
534.8	0.95536
535.0	0.95411
535.2	0.95138
535.4	0.94717
535.6	0.94425
535.8	0.94341
536.0	0.94301
536.2	0.94281
536.4	0.94479
536.6	0.94778
536.8	0.94918
537.0	0.9489
537.2	0.94825
537.4	0.94676
537.6	0.94408
537.8	0.93917
538.0	0.93551
538.2	0.93432
538.4	0.93364
538.6	0.93364
538.8	0.93651
539.0	0.94148
539.2	0.94593
539.4	0.94886
539.6	0.95136
539.8	0.9524
540.0	0.95153
540.2	0.95143
540.4	0.9502
540.6	0.94548
540.8	0.94275
541.0	0.94073
541.2	0.93914
541.4	0.93671
541.6	0.93946
541.8	0.94296
542.0	0.94545
542.2	0.94931
542.4	0.95137
542.6	0.95418
542.8	0.95521
543.0	0.95304
543.2	0.95325
543.4	0.95388
543.6	0.95392
543.8	0.95384
544.0	0.95665
544.2	0.95993
544.4	0.96136
544.6	0.96257
544.8	0.96181
545.0	0.95983
545.2	0.95693
545.4	0.95344
545.6	0.94789
545.8	0.94593
546.0	0.94527
546.2	0.94733
546.4	0.94946
546.6	0.95208
546.8	0.95658
547.0	0.95984
547.2	0.95958
547.4	0.95506
547.6	0.94878
547.8	0.94234
548.0	0.93522
548.2	0.92912
548.4	0.92428
548.6	0.92323
548.8	0.92708
549.0	0.93176
549.2	0.9365
549.4	0.94334
549.6	0.949
549.8	0.95344
550.0	0.95456
550.2	0.95616
550.4	0.95658
550.6	0.95892
550.8	0.95974
551.0	0.96134
551.2	0.96103
551.4	0.959
551.6	0.95808
551.8	0.95586
552.0	0.95624
552.2	0.95803
552.4	0.95925
552.6	0.9574
552.8	0.9457
553.0	0.9271
553.2	0.90669
553.4	0.89986
553.6	0.91107
553.8	0.86637
554.0	0.65184
554.2	0.34483
554.4	0.12993
554.6	0.05095
554.8	0.02127
555.0	0.0098
555.2	0.00494
555.4	0.00269
555.6	0.00158
555.8	8.0441e-04
556.0	4.7153e-04
556.2	2.8573e-04
556.4	1.7872e-04
556.6	1.1805e-04
556.8	7.8516e-05
557.0	5.405e-05
557.2	3.9158e-05
557.4	2.8129e-05
557.6	2.0206e-05
557.8	1.4913e-05
558.0	1.1274e-05
558.2	8.5287e-06
558.4	6.6671e-06
558.6	5.2118e-06
558.8	4.2476e-06
559.0	3.4648e-06
559.2	2.8651e-06
559.4	2.4059e-06
559.6	2.0203e-06
559.8	1.7331e-06
560.0	1.488e-06
560.2	1.3057e-06
560.4	1.1468e-06
560.6	1.0241e-06
560.8	9.3326e-07
561.0	8.5045e-07
561.2	7.8196e-07
561.4	7.194e-07
561.6	7.0053e-07
561.8	6.8647e-07
562.0	6.667e-07
562.2	6.3852e-07
562.4	6.1153e-07
562.6	6.0031e-07
562.8	5.9127e-07
563.0	5.7589e-07
563.2	5.5972e-07
563.4	5.4819e-07
563.6	5.4534e-07
563.8	5.425e-07
564.0	5.4792e-07
564.2	5.5523e-07
564.4	5.7524e-07
564.6	5.9971e-07
564.8	6.2193e-07
565.0	6.3585e-07
565.2	6.5009e-07
565.4	6.8471e-07
565.6	7.2797e-07
565.8	7.7865e-07
566.0	8.3477e-07
566.2	9.0409e-07
566.4	1.0162e-06
566.6	1.1423e-06
566.8	1.27e-06
567.0	1.4056e-06
567.2	1.6532e-06
567.4	1.9933e-06
567.6	2.3961e-06
567.8	2.8447e-06
568.0	3.3774e-06
568.2	4.1022e-06
568.4	5.0338e-06
568.6	6.3819e-06
568.8	8.2343e-06
569.0	1.0664e-05
569.2	1.4126e-05
569.4	1.8713e-05
569.6	2.5088e-05
569.8	3.3873e-05
570.0	4.7326e-05
570.2	6.7093e-05
570.4	9.6383e-05
570.6	1.4429e-04
570.8	2.1818e-04
571.0	3.3571e-04
571.2	5.4659e-04
571.4	8.9258e-04
571.6	0.00147
571.8	0.00246
572.0	0.00439
572.2	0.00824
572.4	0.01645
572.6	0.03536
572.8	0.08268
573.0	0.18761
573.2	0.38994
573.4	0.65697
573.6	0.84814
573.8	0.92625
574.0	0.94994
574.2	0.96186
574.4	0.96597
574.6	0.96244
574.8	0.95139
575.0	0.93964
575.2	0.93121
575.4	0.92724
575.6	0.92927
575.8	0.93675
576.0	0.94443
576.2	0.95122
576.4	0.95413
576.6	0.95169
576.8	0.94484
577.0	0.93616
577.2	0.93079
577.4	0.92621
577.6	0.92439
577.8	0.92514
578.0	0.92897
578.2	0.9368
578.4	0.94473
578.6	0.95255
578.8	0.95885
579.0	0.96199
579.2	0.9642
579.4	0.96531
579.6	0.96369
579.8	0.96065
580.0	0.95721
580.2	0.95386
580.4	0.95118
580.6	0.94946
580.8	0.94792
581.0	0.9459
581.2	0.94343
581.4	0.94395
581.6	0.9457
581.8	0.94772
582.0	0.9488
582.2	0.9501
582.4	0.95371
582.6	0.95601
582.8	0.95827
583.0	0.96028
583.2	0.96071
583.4	0.96004
583.6	0.95879
583.8	0.95685
584.0	0.95358
584.2	0.94924
584.4	0.94485
584.6	0.94072
584.8	0.93803
585.0	0.93669
585.2	0.93476
585.4	0.93381
585.6	0.93407
585.8	0.9371
586.0	0.94018
586.2	0.94255
586.4	0.94449
586.6	0.94707
586.8	0.94977
587.0	0.95242
587.2	0.95365
587.4	0.9537
587.6	0.95315
587.8	0.95332
588.0	0.95328
588.2	0.95246
588.4	0.9511
588.6	0.94892
588.8	0.94792
589.0	0.94706
589.2	0.9468
589.4	0.94588
589.6	0.94473
589.8	0.94426
590.0	0.94516
590.2	0.94683
590.4	0.94755
590.6	0.94802
590.8	0.9492
591.0	0.95077
591.2	0.95283
591.4	0.95423
591.6	0.95423
591.8	0.95377
592.0	0.95345
592.2	0.95318
592.4	0.95287
592.6	0.95152
592.8	0.94987
593.0	0.94842
593.2	0.94788
593.4	0.94835
593.6	0.94858
593.8	0.94841
594.0	0.94827
594.2	0.94915
594.4	0.95048
594.6	0.95205
594.8	0.95216
595.0	0.95168
595.2	0.95102
595.4	0.95092
595.6	0.95071
595.8	0.9504
596.0	0.94875
596.2	0.94715
596.4	0.94662
596.6	0.947
596.8	0.9478
597.0	0.94818
597.2	0.94844
597.4	0.94944
597.6	0.95159
597.8	0.95425
598.0	0.95588
598.2	0.95682
598.4	0.95733
598.6	0.95829
598.8	0.95951
599.0	0.96017
599.2	0.95961
599.4	0.95893
599.6	0.95796
599.8	0.95759
600.0	0.95802
600.2	0.95746
600.4	0.95677
600.6	0.95554
600.8	0.9551
601.0	0.95529
601.2	0.95597
601.4	0.9555
601.6	0.95468
601.8	0.95366
602.0	0.95393
602.2	0.95396
602.4	0.95435
602.6	0.95371
602.8	0.95271
603.0	0.95236
603.2	0.95233
603.4	0.95265
603.6	0.95261
603.8	0.95163
604.0	0.95034
604.2	0.9491
604.4	0.94868
604.6	0.94845
604.8	0.94675
605.0	0.94497
605.2	0.94292
605.4	0.94254
605.6	0.94268
605.8	0.94295
606.0	0.94303
606.2	0.9426
606.4	0.94435
606.6	0.94632
606.8	0.94894
607.0	0.95101
607.2	0.95211
607.4	0.95343
607.6	0.95455
607.8	0.95588
608.0	0.95648
608.2	0.95483
608.4	0.9529
608.6	0.95232
608.8	0.95174
609.0	0.95074
609.2	0.94999
609.4	0.94944
609.6	0.94974
609.8	0.95138
610.0	0.95309
610.2	0.95465
610.4	0.95567
610.6	0.95666
610.8	0.95786
611.0	0.95956
611.2	0.96054
611.4	0.96035
611.6	0.95917
611.8	0.95743
612.0	0.95657
612.2	0.95556
612.4	0.95442
612.6	0.95331
612.8	0.95182
613.0	0.95068
613.2	0.95057
613.4	0.95218
613.6	0.95293
613.8	0.95334
614.0	0.95398
614.2	0.95423
614.4	0.95534
614.6	0.95657
614.8	0.95744
615.0	0.95642
615.2	0.95569
615.4	0.9543
615.6	0.95333
615.8	0.95323
616.0	0.95223
616.2	0.95083
616.4	0.9489
616.6	0.94811
616.8	0.94838
617.0	0.94887
617.2	0.94948
617.4	0.94961
617.6	0.94923
617.8	0.9494
618.0	0.95035
618.2	0.9516
618.4	0.95232
618.6	0.95196
618.8	0.95094
619.0	0.95034
619.2	0.95046
619.4	0.95092
619.6	0.95111
619.8	0.95079
620.0	0.94983
620.2	0.94961
620.4	0.95041
620.6	0.95113
620.8	0.9517
621.0	0.95166
621.2	0.95139
621.4	0.95098
621.6	0.95105
621.8	0.9518
622.0	0.95204
622.2	0.95114
622.4	0.94989
622.6	0.94875
622.8	0.94851
623.0	0.94913
623.2	0.94998
623.4	0.95017
623.6	0.95008
623.8	0.95087
624.0	0.95207
