Typical Measured Spectrum of Semrock NF03-405E Optical Filter	
For wavelengths between 320 and 1120 nm, values near or below 3e-7 (Optical Density 6.5) are measurement noise limited.
For wavelengths < 320 nm and > 1120 nm, values near or below 3e-6 (Optical Density 5.5) are measurement noise limited. 
Data format:  Wavelength (nm) <tab> Transmission (0 to 1)
345.0	0.83949
345.2	0.84011
345.4	0.84582
345.6	0.83888
345.8	0.84108
346.0	0.84869
346.2	0.84559
346.4	0.84238
346.6	0.85058
346.8	0.85461
347.0	0.85265
347.2	0.84915
347.4	0.85731
347.6	0.86349
347.8	0.85556
348.0	0.85573
348.2	0.86565
348.4	0.867
348.6	0.86303
348.8	0.86207
349.0	0.87097
349.2	0.87018
349.4	0.86616
349.6	0.86612
349.8	0.87385
350.0	0.87366
350.2	0.87178
350.4	0.87269
350.6	0.87772
350.8	0.87803
351.0	0.8734
351.2	0.87375
351.4	0.88196
351.6	0.87932
351.8	0.87694
352.0	0.87758
352.2	0.88272
352.4	0.88048
352.6	0.87368
352.8	0.8732
353.0	0.8823
353.2	0.88584
353.4	0.8779
353.6	0.87726
353.8	0.88719
354.0	0.88923
354.2	0.88321
354.4	0.87879
354.6	0.88793
354.8	0.8925
355.0	0.88991
355.2	0.88373
355.4	0.88903
355.6	0.89665
355.8	0.89517
356.0	0.89006
356.2	0.88927
356.4	0.89548
356.6	0.89513
356.8	0.8864
357.0	0.88584
357.2	0.89266
357.4	0.89706
357.6	0.88721
357.8	0.88125
358.0	0.8833
358.2	0.89212
358.4	0.88995
358.6	0.88288
358.8	0.88541
359.0	0.89422
359.2	0.89943
359.4	0.89192
359.6	0.89089
359.8	0.89796
360.0	0.90337
360.2	0.90226
360.4	0.89675
360.6	0.89748
360.8	0.90379
361.0	0.90439
361.2	0.894
361.4	0.88764
361.6	0.89229
361.8	0.89992
362.0	0.89805
362.2	0.88905
362.4	0.88831
362.6	0.89333
362.8	0.89599
363.0	0.89043
363.2	0.88618
363.4	0.88673
363.6	0.89514
363.8	0.89641
364.0	0.89256
364.2	0.88742
364.4	0.89147
364.6	0.901
364.8	0.89523
365.0	0.89016
365.2	0.89654
365.4	0.90293
365.6	0.8974
365.8	0.88844
366.0	0.88692
366.2	0.89764
366.4	0.90444
366.6	0.90093
366.8	0.88979
367.0	0.88831
367.2	0.8953
367.4	0.90141
367.6	0.89701
367.8	0.88974
368.0	0.8912
368.2	0.89773
368.4	0.90121
368.6	0.89537
368.8	0.88905
369.0	0.88586
369.2	0.89481
369.4	0.90215
369.6	0.89715
369.8	0.89093
370.0	0.89266
370.2	0.8996
370.4	0.90158
370.6	0.89522
370.8	0.889
371.0	0.88985
371.2	0.89864
371.4	0.90102
371.6	0.89601
371.8	0.88903
372.0	0.89021
372.2	0.89813
372.4	0.90177
372.6	0.89639
372.8	0.88872
373.0	0.89015
373.2	0.89916
373.4	0.90508
373.6	0.90097
373.8	0.89252
374.0	0.89111
374.2	0.90029
374.4	0.91099
374.6	0.90714
374.8	0.89911
375.0	0.89489
375.2	0.90133
375.4	0.91129
375.6	0.91093
375.8	0.90174
376.0	0.8925
376.2	0.89501
376.4	0.90226
376.6	0.9068
376.8	0.9005
377.0	0.89296
377.2	0.89111
377.4	0.89868
377.6	0.90444
377.8	0.90317
378.0	0.8949
378.2	0.89188
378.4	0.89894
378.6	0.90652
378.8	0.91083
379.0	0.90624
379.2	0.90069
379.4	0.90485
379.6	0.91366
379.8	0.91643
380.0	0.91419
380.2	0.90522
380.4	0.90205
380.6	0.90999
380.8	0.92039
381.0	0.9208
381.2	0.91128
381.4	0.90251
381.6	0.90409
381.8	0.91387
382.0	0.92041
382.2	0.91683
382.4	0.90895
382.6	0.9029
382.8	0.90891
383.0	0.91881
383.2	0.92071
383.4	0.9139
383.6	0.90633
383.8	0.90788
384.0	0.91625
384.2	0.92163
384.4	0.92052
384.6	0.91042
384.8	0.90448
385.0	0.9113
385.2	0.92085
385.4	0.92895
385.6	0.92344
385.8	0.91411
386.0	0.91227
386.2	0.92015
386.4	0.92785
386.6	0.92994
386.8	0.92268
387.0	0.91497
387.2	0.9164
387.4	0.92538
387.6	0.92928
387.8	0.92658
388.0	0.91663
388.2	0.9126
388.4	0.91714
388.6	0.92808
388.8	0.93461
389.0	0.92969
389.2	0.91909
389.4	0.9148
389.6	0.91973
389.8	0.93125
390.0	0.93793
390.2	0.93483
390.4	0.92583
390.6	0.92409
390.8	0.93191
391.0	0.94066
391.2	0.9424
391.4	0.93623
391.6	0.92766
391.8	0.9251
392.0	0.9353
392.2	0.93931
392.4	0.9307
392.6	0.91825
392.8	0.91539
393.0	0.92379
393.2	0.93556
393.4	0.93712
393.6	0.92925
393.8	0.91926
394.0	0.91938
394.2	0.92864
394.4	0.9395
394.6	0.94082
394.8	0.93618
395.0	0.92733
395.2	0.93078
395.4	0.94094
395.6	0.94809
395.8	0.94597
396.0	0.93751
396.2	0.93567
396.4	0.94378
396.6	0.95038
396.8	0.95268
397.0	0.94454
397.2	0.935
397.4	0.93833
397.6	0.94664
397.8	0.95015
398.0	0.94337
398.2	0.93306
398.4	0.9307
398.6	0.93812
398.8	0.94288
399.0	0.93759
399.2	0.93423
399.4	0.93729
399.6	0.93969
399.8	0.93648
400.0	0.93483
400.2	0.90575
400.4	0.80599
400.6	0.664
400.8	0.36592
401.0	0.02471
401.2	0.00573
401.4	0.00236
401.6	0.00152
401.8	0.00115
402.0	8.1146e-04
402.2	5.774e-04
402.4	5.2105e-05
402.6	6.2719e-06
402.8	3.5594e-06
403.0	1.8106e-06
403.2	2.5085e-06
403.4	2.0434e-06
403.6	1.1757e-06
403.8	9.0761e-07
404.0	1.0114e-06
404.2	8.4645e-07
404.4	8.165e-07
404.6	7.9632e-07
404.8	7.0908e-07
405.0	6.2853e-07
405.2	3.9658e-07
405.4	1.939e-07
405.6	5.5514e-07
405.8	9.7916e-07
406.0	1.3893e-06
406.2	1.2248e-06
406.4	1.2329e-06
406.6	1.6937e-06
406.8	3.0994e-06
407.0	2.8244e-06
407.2	3.0238e-06
407.4	4.3403e-06
407.6	9.1007e-06
407.8	3.0084e-05
408.0	9.3934e-05
408.2	1.578e-04
408.4	3.0881e-04
408.6	6.3222e-04
408.8	0.0016
409.0	0.00555
409.2	0.02997
409.4	0.18089
409.6	0.42388
409.8	0.67905
410.0	0.84884
410.2	0.92303
410.4	0.92044
410.6	0.92967
410.8	0.94873
411.0	0.94007
411.2	0.91508
411.4	0.90899
411.6	0.92885
411.8	0.95247
412.0	0.96005
412.2	0.95165
412.4	0.94733
412.6	0.95244
412.8	0.96317
413.0	0.96247
413.2	0.95603
413.4	0.94693
413.6	0.94742
413.8	0.95558
414.0	0.96327
414.2	0.95836
414.4	0.94512
414.6	0.93142
414.8	0.92778
415.0	0.93828
415.2	0.95159
415.4	0.95962
415.6	0.9557
415.8	0.94629
416.0	0.93909
416.2	0.94137
416.4	0.94988
416.6	0.95605
416.8	0.95504
417.0	0.94644
417.2	0.93773
417.4	0.9357
417.6	0.94377
417.8	0.95279
418.0	0.95918
418.2	0.95528
418.4	0.94351
418.6	0.93377
418.8	0.93354
419.0	0.94284
419.2	0.9558
419.4	0.96272
419.6	0.96256
419.8	0.95372
420.0	0.94475
420.2	0.94077
420.4	0.94751
420.6	0.95752
420.8	0.96514
421.0	0.96391
421.2	0.9549
421.4	0.94453
421.6	0.9387
421.8	0.9432
422.0	0.9526
422.2	0.95913
422.4	0.96066
422.6	0.95333
422.8	0.94318
423.0	0.93757
423.2	0.93896
423.4	0.94677
423.6	0.95455
423.8	0.95631
424.0	0.95013
424.2	0.93921
424.4	0.93217
424.6	0.93182
424.8	0.93821
425.0	0.94848
425.2	0.95598
425.4	0.95479
425.6	0.94734
425.8	0.93902
426.0	0.93478
426.2	0.93914
426.4	0.94865
426.6	0.9568
426.8	0.96031
427.0	0.95685
427.2	0.94941
427.4	0.93988
427.6	0.93566
427.8	0.94124
428.0	0.95028
428.2	0.95922
428.4	0.96047
428.6	0.95476
428.8	0.94371
429.0	0.93483
429.2	0.93173
429.4	0.93892
429.6	0.9495
429.8	0.95855
430.0	0.95828
430.2	0.95159
430.4	0.94149
430.6	0.93303
430.8	0.93285
431.0	0.93862
431.2	0.94881
431.4	0.95676
431.6	0.95686
431.8	0.94966
432.0	0.94092
432.2	0.93452
432.4	0.93446
432.6	0.94167
432.8	0.95126
433.0	0.95833
433.2	0.9579
433.4	0.95126
433.6	0.94193
433.8	0.93518
434.0	0.93479
434.2	0.94017
434.4	0.95013
434.6	0.95621
434.8	0.95609
435.0	0.95008
435.2	0.94156
435.4	0.93539
435.6	0.9335
435.8	0.93816
436.0	0.94566
436.2	0.95179
436.4	0.95289
436.6	0.94834
436.8	0.94181
437.0	0.93605
437.2	0.93527
437.4	0.94008
437.6	0.94718
437.8	0.95254
438.0	0.9534
438.2	0.94859
438.4	0.94094
438.6	0.93491
438.8	0.93364
439.0	0.93824
439.2	0.94743
439.4	0.95475
439.6	0.95884
439.8	0.95627
440.0	0.94965
440.2	0.94224
440.4	0.93835
440.6	0.94021
440.8	0.94644
441.0	0.95355
441.2	0.9588
441.4	0.95684
441.6	0.94901
441.8	0.94091
442.0	0.93465
442.2	0.9324
442.4	0.93649
442.6	0.94236
442.8	0.9496
443.0	0.95179
443.2	0.94798
443.4	0.94164
443.6	0.93531
443.8	0.93291
444.0	0.93539
444.2	0.94131
444.4	0.94855
444.6	0.95227
444.8	0.95046
445.0	0.94406
445.2	0.93671
445.4	0.93062
445.6	0.92974
445.8	0.93475
446.0	0.94241
446.2	0.95139
446.4	0.95535
446.6	0.9547
446.8	0.94878
447.0	0.94208
447.2	0.93817
447.4	0.93848
447.6	0.94431
447.8	0.95147
448.0	0.9577
448.2	0.95951
448.4	0.95662
448.6	0.94883
448.8	0.94152
449.0	0.93658
449.2	0.93611
449.4	0.942
449.6	0.94797
449.8	0.95267
450.0	0.95417
450.2	0.95113
450.4	0.94496
450.6	0.93997
450.8	0.93756
451.0	0.93844
451.2	0.94166
451.4	0.94787
451.6	0.95084
451.8	0.95137
452.0	0.94726
452.2	0.94193
452.4	0.93669
452.6	0.93484
452.8	0.93731
453.0	0.94236
453.2	0.94742
453.4	0.95056
453.6	0.94979
453.8	0.9452
454.0	0.93991
454.2	0.93498
454.4	0.93428
454.6	0.93791
454.8	0.94392
455.0	0.95051
455.2	0.95471
455.4	0.95606
455.6	0.95019
455.8	0.94498
456.0	0.93982
456.2	0.93705
456.4	0.93912
456.6	0.94271
456.8	0.94779
457.0	0.94988
457.2	0.95027
457.4	0.94651
457.6	0.94082
457.8	0.93539
458.0	0.93363
458.2	0.93649
458.4	0.94137
458.6	0.94845
458.8	0.95471
459.0	0.95863
459.2	0.95718
459.4	0.95267
459.6	0.94908
459.8	0.9447
460.0	0.94558
460.2	0.94712
460.4	0.95298
460.6	0.95864
460.8	0.96085
461.0	0.95982
461.2	0.95522
461.4	0.94965
461.6	0.94485
461.8	0.94362
462.0	0.9457
462.2	0.94996
462.4	0.95684
462.6	0.96063
462.8	0.96168
463.0	0.9587
463.2	0.95385
463.4	0.94855
463.6	0.94487
463.8	0.94513
464.0	0.9474
464.2	0.95206
464.4	0.95686
464.6	0.95977
464.8	0.95741
465.0	0.95312
465.2	0.94645
465.4	0.9406
465.6	0.9382
465.8	0.93744
466.0	0.94219
466.2	0.94642
466.4	0.95197
466.6	0.95365
466.8	0.95368
467.0	0.95198
467.2	0.94751
467.4	0.9458
467.6	0.94492
467.8	0.9465
468.0	0.94829
468.2	0.9468
468.4	0.95116
468.6	0.9536
468.8	0.9549
469.0	0.95359
469.2	0.94956
469.4	0.94577
469.6	0.94289
469.8	0.94325
470.0	0.94661
470.2	0.95229
470.4	0.9579
470.6	0.96175
470.8	0.96299
471.0	0.96033
471.2	0.95597
471.4	0.95158
471.6	0.94689
471.8	0.94568
472.0	0.94791
472.2	0.9522
472.4	0.95766
472.6	0.9617
472.8	0.96297
473.0	0.96142
473.2	0.95795
473.4	0.95354
473.6	0.94969
473.8	0.94872
474.0	0.95038
474.2	0.95357
474.4	0.95709
474.6	0.95928
474.8	0.9583
475.0	0.95385
475.2	0.94867
475.4	0.9434
475.6	0.9398
475.8	0.93914
476.0	0.94149
476.2	0.94642
476.4	0.95279
476.6	0.95706
476.8	0.95938
477.0	0.9575
477.2	0.95396
477.4	0.94799
477.6	0.94353
477.8	0.94102
478.0	0.94195
478.2	0.94608
478.4	0.95282
478.6	0.95881
478.8	0.96336
479.0	0.96438
479.2	0.96266
479.4	0.9588
479.6	0.95507
479.8	0.95195
480.0	0.95168
480.2	0.95325
480.4	0.95724
480.6	0.96073
480.8	0.96374
481.0	0.96405
481.2	0.9617
481.4	0.95681
481.6	0.95158
481.8	0.94783
482.0	0.94662
482.2	0.94871
482.4	0.95276
482.6	0.95844
482.8	0.96341
483.0	0.96755
483.2	0.96797
483.4	0.96555
483.6	0.96192
483.8	0.95813
484.0	0.95422
484.2	0.95222
484.4	0.95287
484.6	0.95512
484.8	0.95691
485.0	0.9592
485.2	0.95972
485.4	0.95777
485.6	0.95454
485.8	0.95218
486.0	0.94871
486.2	0.9479
486.4	0.94867
486.6	0.95178
486.8	0.95515
487.0	0.95881
487.2	0.96146
487.4	0.96135
487.6	0.95924
487.8	0.95569
488.0	0.95239
488.2	0.94885
488.4	0.94881
488.6	0.94983
488.8	0.95388
489.0	0.95811
489.2	0.96202
489.4	0.96414
489.6	0.9635
489.8	0.96119
490.0	0.95778
490.2	0.9532
490.4	0.94962
490.6	0.949
490.8	0.95016
491.0	0.95248
491.2	0.9547
491.4	0.95846
491.6	0.95929
491.8	0.95842
492.0	0.9563
492.2	0.95271
492.4	0.94937
492.6	0.94703
492.8	0.94732
493.0	0.94825
493.2	0.95121
493.4	0.95499
493.6	0.95811
493.8	0.96078
494.0	0.96019
494.2	0.9591
494.4	0.95593
494.6	0.95274
494.8	0.9508
495.0	0.95015
495.2	0.95069
495.4	0.95298
495.6	0.95591
495.8	0.95802
496.0	0.95927
496.2	0.95902
496.4	0.95683
496.6	0.95423
496.8	0.95184
497.0	0.95006
497.2	0.95017
497.4	0.95082
497.6	0.95348
497.8	0.95684
498.0	0.95958
498.2	0.96022
498.4	0.95926
498.6	0.95652
498.8	0.95313
499.0	0.94948
499.2	0.9462
499.4	0.94527
499.6	0.94594
499.8	0.948
500.0	0.95006
500.2	0.95296
500.4	0.95556
500.6	0.95715
500.8	0.95703
501.0	0.95491
501.2	0.9517
501.4	0.94768
501.6	0.94388
501.8	0.9432
502.0	0.94278
502.2	0.94409
502.4	0.94611
502.6	0.94933
502.8	0.95186
503.0	0.95179
503.2	0.95175
503.4	0.94969
503.6	0.94831
503.8	0.94682
504.0	0.94633
504.2	0.94815
504.4	0.95085
504.6	0.95403
504.8	0.95926
505.0	0.96244
505.2	0.96441
505.4	0.96325
505.6	0.96058
505.8	0.9572
506.0	0.9538
506.2	0.9505
506.4	0.9493
506.6	0.94991
506.8	0.95357
507.0	0.9573
507.2	0.96204
507.4	0.96564
507.6	0.96778
507.8	0.96755
508.0	0.9647
508.2	0.9608
508.4	0.9569
508.6	0.95178
508.8	0.94901
509.0	0.9488
509.2	0.94961
509.4	0.95193
509.6	0.9563
509.8	0.95911
510.0	0.96084
510.2	0.9601
510.4	0.95814
510.6	0.95562
510.8	0.95212
511.0	0.94847
511.2	0.94591
511.4	0.94598
511.6	0.94643
511.8	0.9486
512.0	0.95066
512.2	0.95208
512.4	0.95303
512.6	0.95257
512.8	0.95051
513.0	0.94789
513.2	0.94564
513.4	0.94291
513.6	0.94032
513.8	0.94164
514.0	0.94232
514.2	0.9446
514.4	0.94714
514.6	0.94955
514.8	0.95132
515.0	0.95115
515.2	0.95
515.4	0.94893
515.6	0.94787
515.8	0.94562
516.0	0.94536
516.2	0.9463
516.4	0.9489
516.6	0.95211
516.8	0.95558
517.0	0.95818
517.2	0.95978
517.4	0.95998
517.6	0.95812
517.8	0.95436
518.0	0.95205
518.2	0.95041
518.4	0.9476
518.6	0.94768
518.8	0.94936
519.0	0.95308
519.2	0.95587
519.4	0.95861
519.6	0.96043
519.8	0.96162
520.0	0.96004
520.2	0.95647
520.4	0.95329
520.6	0.94924
520.8	0.94592
521.0	0.94404
521.2	0.94397
521.4	0.9461
521.6	0.94871
521.8	0.95264
522.0	0.95452
522.2	0.95676
522.4	0.95795
522.6	0.95741
522.8	0.95428
523.0	0.95142
523.2	0.94875
523.4	0.94691
523.6	0.94615
523.8	0.94563
524.0	0.9479
524.2	0.95063
524.4	0.95307
524.6	0.95446
524.8	0.95447
525.0	0.95429
525.2	0.95197
525.4	0.94843
525.6	0.94492
525.8	0.94238
526.0	0.94095
526.2	0.94136
526.4	0.94274
526.6	0.94661
526.8	0.95119
527.0	0.95547
527.2	0.95819
527.4	0.95933
527.6	0.96016
527.8	0.95836
528.0	0.95555
528.2	0.9509
528.4	0.94692
528.6	0.94462
528.8	0.9427
529.0	0.94307
529.2	0.94351
529.4	0.94573
529.6	0.94925
529.8	0.95053
530.0	0.95186
530.2	0.95086
530.4	0.94945
530.6	0.9475
530.8	0.94403
531.0	0.93982
531.2	0.93776
531.4	0.93688
531.6	0.93799
531.8	0.93897
532.0	0.94196
532.2	0.9453
532.4	0.9487
532.6	0.95116
532.8	0.95154
533.0	0.95124
533.2	0.95001
533.4	0.94805
533.6	0.94573
533.8	0.94361
534.0	0.94355
534.2	0.94394
534.4	0.94587
534.6	0.94807
534.8	0.95051
535.0	0.95396
535.2	0.95572
535.4	0.95659
535.6	0.95627
535.8	0.95467
536.0	0.95343
536.2	0.95114
536.4	0.94931
536.6	0.94801
536.8	0.9478
537.0	0.94945
537.2	0.95145
537.4	0.95343
537.6	0.95474
537.8	0.95543
538.0	0.95623
538.2	0.95594
538.4	0.95373
538.6	0.95094
538.8	0.94798
539.0	0.94633
539.2	0.94393
539.4	0.94317
539.6	0.94259
539.8	0.94315
540.0	0.94538
540.2	0.94668
540.4	0.94673
540.6	0.94644
540.8	0.94648
541.0	0.94454
541.2	0.94171
541.4	0.93769
541.6	0.93443
541.8	0.93283
542.0	0.93201
542.2	0.9325
542.4	0.93266
542.6	0.93448
542.8	0.93741
543.0	0.94215
543.2	0.94444
543.4	0.94402
543.6	0.94297
543.8	0.94099
544.0	0.9385
544.2	0.93667
544.4	0.93637
544.6	0.9371
544.8	0.93853
545.0	0.94019
545.2	0.94313
545.4	0.94612
545.6	0.94961
545.8	0.95144
546.0	0.95179
546.2	0.95125
546.4	0.94988
546.6	0.94825
546.8	0.94604
547.0	0.94419
547.2	0.94309
547.4	0.94355
547.6	0.94506
547.8	0.94751
548.0	0.9504
548.2	0.95257
548.4	0.95504
548.6	0.95669
548.8	0.95707
549.0	0.9559
549.2	0.95305
549.4	0.94949
549.6	0.9469
549.8	0.94432
550.0	0.94165
550.2	0.93996
550.4	0.93968
550.6	0.94111
550.8	0.9431
551.0	0.94521
551.2	0.94694
551.4	0.94874
551.6	0.94947
551.8	0.95005
552.0	0.94897
552.2	0.94706
552.4	0.94416
552.6	0.94226
552.8	0.9408
553.0	0.9402
553.2	0.93962
553.4	0.94019
553.6	0.94131
553.8	0.9434
554.0	0.9455
554.2	0.94666
554.4	0.9471
554.6	0.94746
554.8	0.94731
555.0	0.94639
555.2	0.94518
555.4	0.9434
555.6	0.94206
555.8	0.94155
556.0	0.94237
556.2	0.94317
556.4	0.94485
556.6	0.94624
556.8	0.94818
557.0	0.9496
557.2	0.95065
557.4	0.95027
557.6	0.94892
557.8	0.94697
558.0	0.94469
558.2	0.94292
558.4	0.9409
558.6	0.93919
558.8	0.93799
559.0	0.93844
559.2	0.94025
559.4	0.94254
559.6	0.94481
559.8	0.94683
560.0	0.94867
560.2	0.95045
560.4	0.95101
560.6	0.95048
560.8	0.94867
561.0	0.9466
561.2	0.94388
561.4	0.942
561.6	0.94091
561.8	0.93968
562.0	0.93927
562.2	0.93971
562.4	0.94168
562.6	0.9439
562.8	0.94576
563.0	0.9472
563.2	0.94786
563.4	0.94781
563.6	0.94772
563.8	0.94677
564.0	0.94511
564.2	0.94247
564.4	0.94018
564.6	0.93918
564.8	0.93872
565.0	0.93873
565.2	0.93849
565.4	0.93957
565.6	0.94097
565.8	0.94322
566.0	0.94553
566.2	0.94696
566.4	0.94759
566.6	0.94744
566.8	0.94693
567.0	0.94672
567.2	0.94634
567.4	0.94533
567.6	0.9446
567.8	0.9439
568.0	0.94458
568.2	0.94648
568.4	0.94808
568.6	0.94919
568.8	0.95054
569.0	0.95153
569.2	0.95264
569.4	0.95303
569.6	0.95248
569.8	0.95125
570.0	0.94971
570.2	0.9483
570.4	0.94668
570.6	0.94607
570.8	0.94539
571.0	0.94506
571.2	0.94527
571.4	0.94644
571.6	0.94819
571.8	0.94988
572.0	0.95103
572.2	0.9515
572.4	0.95131
572.6	0.9508
572.8	0.94997
573.0	0.94888
573.2	0.94689
573.4	0.94481
573.6	0.94242
573.8	0.94136
574.0	0.94087
574.2	0.94101
574.4	0.94112
574.6	0.94173
574.8	0.94196
575.0	0.94295
575.2	0.94425
575.4	0.94467
575.6	0.94441
575.8	0.94332
576.0	0.94197
576.2	0.94085
576.4	0.9401
576.6	0.93937
576.8	0.93839
577.0	0.93752
577.2	0.93814
577.4	0.93926
577.6	0.94087
577.8	0.943
578.0	0.94427
578.2	0.94519
578.4	0.94647
578.6	0.94744
578.8	0.94833
579.0	0.94834
579.2	0.94728
579.4	0.94591
579.6	0.94485
579.8	0.94403
580.0	0.94433
580.2	0.9445
580.4	0.94542
580.6	0.94631
580.8	0.94765
581.0	0.94949
581.2	0.95177
581.4	0.9536
581.6	0.95553
581.8	0.95561
582.0	0.95554
582.2	0.95546
582.4	0.95524
582.6	0.95492
582.8	0.95397
583.0	0.95286
583.2	0.95206
583.4	0.95163
583.6	0.95254
583.8	0.95304
584.0	0.95404
584.2	0.95486
584.4	0.95526
584.6	0.95534
584.8	0.95529
585.0	0.95472
585.2	0.95409
585.4	0.95274
585.6	0.95089
585.8	0.94851
586.0	0.94712
586.2	0.94595
586.4	0.94556
586.6	0.94543
586.8	0.9453
587.0	0.94574
587.2	0.94714
587.4	0.94918
587.6	0.95076
587.8	0.95213
588.0	0.95262
588.2	0.95216
588.4	0.95135
588.6	0.95018
588.8	0.94827
589.0	0.94622
589.2	0.94462
589.4	0.94213
589.6	0.94007
589.8	0.93862
590.0	0.939
590.2	0.93991
590.4	0.94083
590.6	0.94205
590.8	0.94326
591.0	0.94449
591.2	0.94616
591.4	0.94786
591.6	0.94837
591.8	0.94846
592.0	0.94744
592.2	0.94603
592.4	0.94496
592.6	0.94418
592.8	0.94361
593.0	0.94317
593.2	0.94251
593.4	0.94302
593.6	0.9442
593.8	0.94624
594.0	0.94876
594.2	0.95156
594.4	0.9535
594.6	0.9556
594.8	0.95612
595.0	0.95664
595.2	0.95682
595.4	0.95635
595.6	0.95527
595.8	0.95337
596.0	0.95132
596.2	0.94987
596.4	0.94888
596.6	0.94851
596.8	0.94885
597.0	0.94938
597.2	0.95018
597.4	0.95111
597.6	0.95287
597.8	0.95515
598.0	0.95707
598.2	0.95832
598.4	0.95886
598.6	0.9587
598.8	0.95777
599.0	0.9568
599.2	0.95558
599.4	0.95435
599.6	0.95337
599.8	0.95181
600.0	0.95103
600.2	0.9504
600.4	0.95065
600.6	0.95154
600.8	0.95248
601.0	0.95373
601.2	0.95415
601.4	0.95488
601.6	0.95482
601.8	0.95506
602.0	0.95479
602.2	0.95429
602.4	0.9532
602.6	0.95191
602.8	0.95001
603.0	0.94874
603.2	0.94792
603.4	0.94798
603.6	0.94829
603.8	0.9488
604.0	0.94925
604.2	0.94967
604.4	0.95036
604.6	0.95129
604.8	0.95212
605.0	0.95282
605.2	0.95233
605.4	0.95173
605.6	0.95044
605.8	0.94904
606.0	0.94744
606.2	0.94674
606.4	0.94602
606.6	0.94533
606.8	0.94494
607.0	0.94564
607.2	0.94643
607.4	0.94865
607.6	0.95147
607.8	0.95364
608.0	0.95696
608.2	0.95888
608.4	0.96001
608.6	0.96041
608.8	0.95978
609.0	0.9593
609.2	0.95759
609.4	0.95553
609.6	0.95289
609.8	0.95074
610.0	0.94989
610.2	0.94916
610.4	0.94881
610.6	0.9488
610.8	0.94919
611.0	0.94951
611.2	0.95057
611.4	0.95178
611.6	0.95295
611.8	0.95368
612.0	0.95375
612.2	0.95336
612.4	0.9525
612.6	0.951
612.8	0.94948
613.0	0.94794
613.2	0.94673
613.4	0.94589
613.6	0.9448
613.8	0.94419
614.0	0.94412
614.2	0.94487
614.4	0.94653
614.6	0.94846
614.8	0.95078
615.0	0.95205
615.2	0.95375
615.4	0.95486
615.6	0.95559
615.8	0.956
616.0	0.95628
616.2	0.95581
616.4	0.95492
616.6	0.9532
616.8	0.95132
617.0	0.95047
617.2	0.94913
617.4	0.94931
617.6	0.94973
617.8	0.95058
618.0	0.95128
618.2	0.95248
618.4	0.95383
618.6	0.95536
618.8	0.9573
619.0	0.95872
619.2	0.95951
619.4	0.95986
619.6	0.95911
619.8	0.95832
620.0	0.95704
620.2	0.95601
620.4	0.95477
620.6	0.95396
620.8	0.95299
621.0	0.95245
621.2	0.95198
621.4	0.95217
621.6	0.95318
621.8	0.95494
622.0	0.95688
622.2	0.9589
622.4	0.96013
622.6	0.96146
622.8	0.96203
623.0	0.96218
623.2	0.9619
623.4	0.96142
623.6	0.9606
623.8	0.95897
624.0	0.95706
624.2	0.95543
624.4	0.9534
624.6	0.95194
624.8	0.95128
625.0	0.95174
625.2	0.952
625.4	0.95304
625.6	0.95388
625.8	0.95532
626.0	0.9559
626.2	0.9574
626.4	0.95836
