Typical Measured Spectrum of Semrock NF03-785E Optical Filter	
For wavelengths between 320 and 1120 nm, values near or below 3e-7 (Optical Density 6.5) are measurement noise limited.
For wavelengths < 320 nm and > 1120 nm, values near or below 3e-6 (Optical Density 5.5) are measurement noise limited. 
Data format:  Wavelength (nm) <tab> Transmission (0 to 1)
345.0	0.08285
345.2	0.16082
345.4	0.34326
345.6	0.46158
345.8	0.50479
346.0	0.53054
346.2	0.54876
346.4	0.56914
346.6	0.57985
346.8	0.58397
347.0	0.58908
347.2	0.58657
347.4	0.60718
347.6	0.61415
347.8	0.63341
348.0	0.64385
348.2	0.64471
348.4	0.64838
348.6	0.65855
348.8	0.66942
349.0	0.68284
349.2	0.6935
349.4	0.70337
349.6	0.69912
349.8	0.70067
350.0	0.69637
350.2	0.69256
350.4	0.69813
350.6	0.70397
350.8	0.71353
351.0	0.71319
351.2	0.71841
351.4	0.72594
351.6	0.7199
351.8	0.71921
352.0	0.71576
352.2	0.71888
352.4	0.72279
352.6	0.73172
352.8	0.74177
353.0	0.74642
353.2	0.74505
353.4	0.74802
353.6	0.74881
353.8	0.74669
354.0	0.74904
354.2	0.75032
354.4	0.75711
354.6	0.76073
354.8	0.76171
355.0	0.76829
355.2	0.77043
355.4	0.76628
355.6	0.76809
355.8	0.77199
356.0	0.7709
356.2	0.77244
356.4	0.78052
356.6	0.78588
356.8	0.78803
357.0	0.79089
357.2	0.79384
357.4	0.79253
357.6	0.79296
357.8	0.78831
358.0	0.78392
358.2	0.79031
358.4	0.79325
358.6	0.795
358.8	0.80355
359.0	0.81429
359.2	0.81822
359.4	0.82014
359.6	0.82158
359.8	0.8213
360.0	0.81344
360.2	0.81013
360.4	0.81053
360.6	0.81104
360.8	0.80902
361.0	0.81465
361.2	0.8242
361.4	0.82622
361.6	0.82872
361.8	0.83311
362.0	0.83531
362.2	0.83199
362.4	0.82921
362.6	0.83216
362.8	0.82979
363.0	0.82411
363.2	0.82887
363.4	0.83387
363.6	0.83495
363.8	0.83591
364.0	0.84228
364.2	0.84838
364.4	0.84719
364.6	0.84574
364.8	0.8485
365.0	0.84908
365.2	0.84745
365.4	0.85111
365.6	0.85441
365.8	0.85471
366.0	0.85692
366.2	0.86164
366.4	0.86595
366.6	0.86398
366.8	0.86093
367.0	0.8642
367.2	0.86016
367.4	0.85381
367.6	0.85045
367.8	0.85189
368.0	0.85246
368.2	0.85362
368.4	0.85073
368.6	0.85967
368.8	0.86434
369.0	0.86366
369.2	0.86337
369.4	0.86518
369.6	0.87043
369.8	0.87162
370.0	0.86403
370.2	0.86284
370.4	0.86788
370.6	0.87114
370.8	0.8694
371.0	0.86749
371.2	0.8715
371.4	0.87806
371.6	0.8838
371.8	0.88296
372.0	0.88303
372.2	0.88957
372.4	0.89059
372.6	0.88875
372.8	0.88252
373.0	0.8814
373.2	0.88451
373.4	0.88279
373.6	0.87694
373.8	0.87706
374.0	0.88287
374.2	0.88937
374.4	0.89121
374.6	0.89155
374.8	0.89446
375.0	0.90023
375.2	0.90482
375.4	0.89871
375.6	0.88975
375.8	0.88668
376.0	0.89055
376.2	0.88933
376.4	0.88452
376.6	0.87828
376.8	0.87886
377.0	0.88724
377.2	0.89146
377.4	0.89278
377.6	0.89414
377.8	0.9007
378.0	0.9079
378.2	0.9104
378.4	0.9062
378.6	0.90166
378.8	0.9007
379.0	0.90205
379.2	0.89944
379.4	0.89207
379.6	0.88575
379.8	0.88871
380.0	0.89565
380.2	0.89954
380.4	0.89722
380.6	0.8957
380.8	0.89995
381.0	0.91129
381.2	0.91602
381.4	0.91303
381.6	0.90671
381.8	0.90647
382.0	0.90554
382.2	0.90592
382.4	0.90444
382.6	0.89841
382.8	0.89412
383.0	0.89543
383.2	0.90054
383.4	0.89832
383.6	0.89633
383.8	0.89839
384.0	0.9051
384.2	0.91347
384.4	0.91496
384.6	0.91735
384.8	0.91581
385.0	0.91967
385.2	0.92161
385.4	0.92077
385.6	0.91309
385.8	0.90653
386.0	0.90374
386.2	0.90608
386.4	0.90606
386.6	0.90294
386.8	0.89936
387.0	0.90031
387.2	0.90776
387.4	0.91498
387.6	0.92046
387.8	0.91713
388.0	0.91775
388.2	0.92035
388.4	0.92711
388.6	0.92921
388.8	0.92496
389.0	0.91945
389.2	0.91695
389.4	0.91686
389.6	0.92054
389.8	0.91769
390.0	0.91078
390.2	0.90373
390.4	0.90492
390.6	0.91261
390.8	0.91826
391.0	0.91974
391.2	0.91687
391.4	0.91402
391.6	0.91855
391.8	0.92564
392.0	0.92624
392.2	0.92833
392.4	0.92878
392.6	0.92231
392.8	0.91595
393.0	0.91794
393.2	0.91999
393.4	0.91951
393.6	0.91734
393.8	0.91011
394.0	0.90937
394.2	0.91295
394.4	0.92067
394.6	0.92274
394.8	0.92171
395.0	0.92229
395.2	0.92416
395.4	0.93075
395.6	0.93787
395.8	0.93834
396.0	0.93342
396.2	0.92808
396.4	0.92852
396.6	0.93206
396.8	0.93679
397.0	0.93321
397.2	0.92781
397.4	0.9212
397.6	0.91706
397.8	0.92183
398.0	0.92601
398.2	0.92817
398.4	0.92506
398.6	0.92045
398.8	0.92485
399.0	0.93241
399.2	0.93878
399.4	0.94048
399.6	0.9379
399.8	0.93384
400.0	0.93408
400.2	0.93519
400.4	0.93759
400.6	0.93252
400.8	0.92754
401.0	0.91955
401.2	0.91568
401.4	0.92046
401.6	0.92498
401.8	0.9299
402.0	0.92821
402.2	0.92495
402.4	0.92332
402.6	0.92782
402.8	0.93634
403.0	0.94522
403.2	0.94678
403.4	0.94567
403.6	0.94186
403.8	0.94145
404.0	0.94318
404.2	0.94764
404.4	0.94607
404.6	0.9382
404.8	0.93127
405.0	0.92569
405.2	0.92521
405.4	0.92736
405.6	0.93077
405.8	0.92992
406.0	0.92867
406.2	0.92597
406.4	0.92941
406.6	0.93615
406.8	0.94455
407.0	0.94769
407.2	0.94561
407.4	0.94152
407.6	0.94044
407.8	0.94031
408.0	0.94546
408.2	0.94931
408.4	0.94643
408.6	0.93919
408.8	0.93391
409.0	0.92975
409.2	0.93104
409.4	0.93569
409.6	0.93398
409.8	0.9292
410.0	0.92257
410.2	0.91859
410.4	0.92124
410.6	0.93029
410.8	0.9405
411.0	0.94623
411.2	0.94622
411.4	0.94276
411.6	0.94173
411.8	0.94177
412.0	0.94631
412.2	0.95071
412.4	0.94864
412.6	0.9432
412.8	0.93716
413.0	0.93416
413.2	0.93559
413.4	0.9391
413.6	0.94052
413.8	0.93693
414.0	0.93111
414.2	0.9261
414.4	0.92464
414.6	0.92819
414.8	0.93778
415.0	0.94429
415.2	0.94537
415.4	0.94222
415.6	0.93923
415.8	0.93966
416.0	0.94405
416.2	0.95067
416.4	0.95742
416.6	0.95764
416.8	0.95149
417.0	0.94581
417.2	0.94124
417.4	0.9409
417.6	0.94031
417.8	0.94293
418.0	0.94023
418.2	0.93564
418.4	0.93234
418.6	0.93183
418.8	0.93245
419.0	0.93784
419.2	0.94212
419.4	0.94183
419.6	0.93969
419.8	0.93752
420.0	0.94006
420.2	0.9439
420.4	0.95133
420.6	0.95549
420.8	0.95664
421.0	0.9529
421.2	0.94558
421.4	0.9428
421.6	0.94256
421.8	0.9453
422.0	0.94668
422.2	0.94629
422.4	0.94331
422.6	0.93753
422.8	0.93423
423.0	0.93303
423.2	0.93617
423.4	0.94089
423.6	0.9455
423.8	0.9445
424.0	0.94326
424.2	0.9417
424.4	0.94372
424.6	0.94676
424.8	0.95401
425.0	0.95864
425.2	0.95984
425.4	0.95715
425.6	0.95313
425.8	0.94976
426.0	0.94946
426.2	0.95104
426.4	0.95258
426.6	0.95172
426.8	0.94634
427.0	0.93971
427.2	0.9333
427.4	0.92964
427.6	0.93149
427.8	0.93551
428.0	0.93892
428.2	0.9397
428.4	0.93969
428.6	0.93665
428.8	0.93624
429.0	0.93825
429.2	0.94318
429.4	0.95266
429.6	0.95906
429.8	0.96098
430.0	0.95929
430.2	0.95654
430.4	0.95439
430.6	0.9535
430.8	0.95691
431.0	0.96029
431.2	0.96096
431.4	0.95729
431.6	0.95087
431.8	0.94513
432.0	0.94064
432.2	0.94086
432.4	0.94382
432.6	0.94703
432.8	0.9481
433.0	0.94652
433.2	0.94111
433.4	0.93731
433.6	0.93757
433.8	0.94093
434.0	0.94752
434.2	0.95639
434.4	0.9601
434.6	0.96075
434.8	0.9569
435.0	0.95232
435.2	0.95028
435.4	0.95119
435.6	0.95491
435.8	0.958
436.0	0.95924
436.2	0.95808
436.4	0.95082
436.6	0.94462
436.8	0.94143
437.0	0.93977
437.2	0.94102
437.4	0.94426
437.6	0.94488
437.8	0.94417
438.0	0.93893
438.2	0.9362
438.4	0.93412
438.6	0.93678
438.8	0.94099
439.0	0.94661
439.2	0.95177
439.4	0.95425
439.6	0.9558
439.8	0.95488
440.0	0.95563
440.2	0.95785
440.4	0.96191
440.6	0.96478
440.8	0.96521
441.0	0.96375
441.2	0.95819
441.4	0.95285
441.6	0.94775
441.8	0.94596
442.0	0.9482
442.2	0.95231
442.4	0.95431
442.6	0.95288
442.8	0.94888
443.0	0.94337
443.2	0.93738
443.4	0.93468
443.6	0.93767
443.8	0.94228
444.0	0.9482
444.2	0.95361
444.4	0.95573
444.6	0.95435
444.8	0.95254
445.0	0.95117
445.2	0.95288
445.4	0.95731
445.6	0.96259
445.8	0.96665
446.0	0.96646
446.2	0.96276
446.4	0.95757
446.6	0.95129
446.8	0.94636
447.0	0.94613
447.2	0.94863
447.4	0.95072
447.6	0.94984
447.8	0.9494
448.0	0.94424
448.2	0.94045
448.4	0.93737
448.6	0.93799
448.8	0.93933
449.0	0.94502
449.2	0.94936
449.4	0.95148
449.6	0.95072
449.8	0.94795
450.0	0.94638
450.2	0.94491
450.4	0.94791
450.6	0.95237
450.8	0.95896
451.0	0.96475
451.2	0.9668
451.4	0.96454
451.6	0.96204
451.8	0.9566
452.0	0.95404
452.2	0.95392
452.4	0.95515
452.6	0.95676
452.8	0.95682
453.0	0.95592
453.2	0.95001
453.4	0.94699
453.6	0.94199
453.8	0.94014
454.0	0.94084
454.2	0.94332
454.4	0.94736
454.6	0.95039
454.8	0.9521
455.0	0.95119
455.2	0.94964
455.4	0.94809
455.6	0.94882
455.8	0.953
456.0	0.95818
456.2	0.96357
456.4	0.9658
456.6	0.96751
456.8	0.96513
457.0	0.9616
457.2	0.95865
457.4	0.95544
457.6	0.95721
457.8	0.95865
458.0	0.96186
458.2	0.96234
458.4	0.96064
458.6	0.95616
458.8	0.95022
459.0	0.94505
459.2	0.94178
459.4	0.9407
459.6	0.94211
459.8	0.94471
460.0	0.94591
460.2	0.94599
460.4	0.94482
460.6	0.94148
460.8	0.93844
461.0	0.9351
461.2	0.93613
461.4	0.94016
461.6	0.94459
461.8	0.9495
462.0	0.95262
462.2	0.95438
462.4	0.95592
462.6	0.95512
462.8	0.9561
463.0	0.95889
463.2	0.96099
463.4	0.96456
463.6	0.96581
463.8	0.96451
464.0	0.96211
464.2	0.95698
464.4	0.95192
464.6	0.94727
464.8	0.94459
465.0	0.94581
465.2	0.94772
465.4	0.95257
465.6	0.95635
465.8	0.95643
466.0	0.95642
466.2	0.95362
466.4	0.95188
466.6	0.95138
466.8	0.95268
467.0	0.95632
467.2	0.96107
467.4	0.96478
467.6	0.96791
467.8	0.96735
468.0	0.96677
468.2	0.96459
468.4	0.96122
468.6	0.95809
468.8	0.95775
469.0	0.9597
469.2	0.9619
469.4	0.96361
469.6	0.96508
469.8	0.96325
470.0	0.95923
470.2	0.95506
470.4	0.94921
470.6	0.94654
470.8	0.94639
471.0	0.94604
471.2	0.94904
471.4	0.95111
471.6	0.95247
471.8	0.95314
472.0	0.95178
472.2	0.94966
472.4	0.94986
472.6	0.94867
472.8	0.95135
473.0	0.95546
473.2	0.9591
473.4	0.96238
473.6	0.96483
473.8	0.96425
474.0	0.96248
474.2	0.9615
474.4	0.95954
474.6	0.96036
474.8	0.96262
475.0	0.96551
475.2	0.96872
475.4	0.97072
475.6	0.97016
475.8	0.96805
476.0	0.96315
476.2	0.95957
476.4	0.95617
476.6	0.9544
476.8	0.95426
477.0	0.95534
477.2	0.95807
477.4	0.95823
477.6	0.95653
477.8	0.95459
478.0	0.95033
478.2	0.94599
478.4	0.94422
478.6	0.9432
478.8	0.94522
479.0	0.9498
479.2	0.95481
479.4	0.95932
479.6	0.96242
479.8	0.9632
480.0	0.96173
480.2	0.95901
480.4	0.95735
480.6	0.95593
480.8	0.95657
481.0	0.95964
481.2	0.96316
481.4	0.96638
481.6	0.9692
481.8	0.96868
482.0	0.9666
482.2	0.96193
482.4	0.95692
482.6	0.9533
482.8	0.95122
483.0	0.95102
483.2	0.9526
483.4	0.95477
483.6	0.95622
483.8	0.95631
484.0	0.95473
484.2	0.95188
484.4	0.94717
484.6	0.94531
484.8	0.94449
485.0	0.94602
485.2	0.94948
485.4	0.95424
485.6	0.95892
485.8	0.96177
486.0	0.96478
486.2	0.96377
486.4	0.96151
486.6	0.95898
486.8	0.95665
487.0	0.95635
487.2	0.95793
487.4	0.96102
487.6	0.96525
487.8	0.96892
488.0	0.97107
488.2	0.97109
488.4	0.96851
488.6	0.96459
488.8	0.9605
489.0	0.95793
489.2	0.95546
489.4	0.95562
489.6	0.95676
489.8	0.95893
490.0	0.95999
490.2	0.96049
490.4	0.95821
490.6	0.95486
490.8	0.95128
491.0	0.94767
491.2	0.94469
491.4	0.94395
491.6	0.94482
491.8	0.94758
492.0	0.9508
492.2	0.95349
492.4	0.95601
492.6	0.95631
492.8	0.95708
493.0	0.95575
493.2	0.95551
493.4	0.95555
493.6	0.95732
493.8	0.95854
494.0	0.96138
494.2	0.96482
494.4	0.96645
494.6	0.96606
494.8	0.96572
495.0	0.96416
495.2	0.96159
495.4	0.95897
495.6	0.95772
495.8	0.95834
496.0	0.95856
496.2	0.95982
496.4	0.96179
496.6	0.96144
496.8	0.95948
497.0	0.95774
497.2	0.95491
497.4	0.95097
497.6	0.94798
497.8	0.94682
498.0	0.9467
498.2	0.94839
498.4	0.95197
498.6	0.95479
498.8	0.95704
499.0	0.95853
499.2	0.95876
499.4	0.95754
499.6	0.95631
499.8	0.95457
500.0	0.95445
500.2	0.95468
500.4	0.95642
500.6	0.96029
500.8	0.96383
501.0	0.96652
501.2	0.96963
501.4	0.97086
501.6	0.97001
501.8	0.96848
502.0	0.96541
502.2	0.96369
502.4	0.96141
502.6	0.96075
502.8	0.96203
503.0	0.96373
503.2	0.96622
503.4	0.96701
503.6	0.96751
503.8	0.96541
504.0	0.96202
504.2	0.95722
504.4	0.95383
504.6	0.94997
504.8	0.94677
505.0	0.94636
505.2	0.94698
505.4	0.94857
505.6	0.95098
505.8	0.9534
506.0	0.95441
506.2	0.95482
506.4	0.95463
506.6	0.95472
506.8	0.95389
507.0	0.95467
507.2	0.95617
507.4	0.95923
507.6	0.96211
507.8	0.96553
508.0	0.96895
508.2	0.97042
508.4	0.97004
508.6	0.96933
508.8	0.96845
509.0	0.9669
509.2	0.96554
509.4	0.96532
509.6	0.96667
509.8	0.96887
510.0	0.97094
510.2	0.97334
510.4	0.97411
510.6	0.97432
510.8	0.97126
511.0	0.96695
511.2	0.96288
511.4	0.95784
511.6	0.95337
511.8	0.95071
512.0	0.95028
512.2	0.95133
512.4	0.95272
512.6	0.95571
512.8	0.95856
513.0	0.95966
513.2	0.9594
513.4	0.95798
513.6	0.95587
513.8	0.95296
514.0	0.95097
514.2	0.95008
514.4	0.95019
514.6	0.95157
514.8	0.95416
515.0	0.95833
515.2	0.96253
515.4	0.96551
515.6	0.96725
515.8	0.96846
516.0	0.9686
516.2	0.9676
516.4	0.96657
516.6	0.96594
516.8	0.96682
517.0	0.96696
517.2	0.96834
517.4	0.97009
517.6	0.97102
517.8	0.97044
518.0	0.96964
518.2	0.96763
518.4	0.96554
518.6	0.96211
518.8	0.95965
519.0	0.95781
519.2	0.95708
519.4	0.95682
519.6	0.95766
519.8	0.95927
520.0	0.96024
520.2	0.96067
520.4	0.95962
520.6	0.95836
520.8	0.95613
521.0	0.95395
521.2	0.9513
521.4	0.95108
521.6	0.95208
521.8	0.95342
522.0	0.95677
522.2	0.96079
522.4	0.96585
522.6	0.96933
522.8	0.97215
523.0	0.97312
523.2	0.97308
523.4	0.97246
523.6	0.96965
523.8	0.9682
524.0	0.96757
524.2	0.96767
524.4	0.96838
524.6	0.97011
524.8	0.972
525.0	0.97326
525.2	0.9741
525.4	0.97312
525.6	0.97218
525.8	0.9697
526.0	0.96574
526.2	0.96226
526.4	0.95938
526.6	0.95802
526.8	0.95744
527.0	0.95757
527.2	0.95855
527.4	0.96093
527.6	0.96268
527.8	0.9633
528.0	0.96291
528.2	0.96165
528.4	0.96035
528.6	0.95689
528.8	0.95483
529.0	0.95371
529.2	0.95364
529.4	0.95456
529.6	0.95606
529.8	0.95913
530.0	0.96223
530.2	0.96517
530.4	0.96689
530.6	0.96784
530.8	0.96833
531.0	0.9668
531.2	0.96593
531.4	0.96397
531.6	0.96268
531.8	0.96234
532.0	0.96267
532.2	0.96334
532.4	0.96594
532.6	0.96767
532.8	0.96976
533.0	0.97025
533.2	0.97066
533.4	0.96957
533.6	0.96792
533.8	0.96538
534.0	0.96249
534.2	0.96058
534.4	0.95922
534.6	0.95866
534.8	0.95892
535.0	0.95924
535.2	0.96079
535.4	0.96214
535.6	0.96256
535.8	0.96132
536.0	0.96067
536.2	0.95848
536.4	0.9565
536.6	0.95483
536.8	0.95317
537.0	0.95311
537.2	0.95394
537.4	0.95628
537.6	0.9585
537.8	0.96132
538.0	0.96378
538.2	0.96599
538.4	0.9666
538.6	0.96663
538.8	0.96523
539.0	0.96426
539.2	0.96197
539.4	0.95986
539.6	0.95906
539.8	0.96014
540.0	0.96192
540.2	0.96353
540.4	0.96601
540.6	0.96908
540.8	0.97108
541.0	0.97228
541.2	0.97218
541.4	0.9709
541.6	0.96868
541.8	0.96598
542.0	0.96315
542.2	0.96046
542.4	0.95876
542.6	0.95902
542.8	0.95954
543.0	0.96034
543.2	0.96139
543.4	0.96332
543.6	0.96461
543.8	0.96525
544.0	0.9646
544.2	0.96248
544.4	0.95927
544.6	0.95721
544.8	0.95432
545.0	0.95151
545.2	0.9498
545.4	0.94959
545.6	0.95078
545.8	0.9528
546.0	0.95498
546.2	0.95831
546.4	0.961
546.6	0.96296
546.8	0.96388
547.0	0.96358
547.2	0.96337
547.4	0.96284
547.6	0.96176
547.8	0.96089
548.0	0.96122
548.2	0.96319
548.4	0.96602
548.6	0.96791
548.8	0.9712
549.0	0.9739
549.2	0.97609
549.4	0.97736
549.6	0.97664
549.8	0.97479
550.0	0.97209
550.2	0.96874
550.4	0.96576
550.6	0.96215
550.8	0.95995
551.0	0.95794
551.2	0.95819
551.4	0.9591
551.6	0.95989
551.8	0.96062
552.0	0.96181
552.2	0.96268
552.4	0.9622
552.6	0.96087
552.8	0.95814
553.0	0.95609
553.2	0.953
553.4	0.95107
553.6	0.94871
553.8	0.94836
554.0	0.94813
554.2	0.94976
554.4	0.95231
554.6	0.95455
554.8	0.9563
555.0	0.95824
555.2	0.96017
555.4	0.96018
555.6	0.95995
555.8	0.95959
556.0	0.95902
556.2	0.95848
556.4	0.95864
556.6	0.95916
556.8	0.96031
557.0	0.96227
557.2	0.96531
557.4	0.96791
557.6	0.9703
557.8	0.97175
558.0	0.97249
558.2	0.97268
558.4	0.97189
558.6	0.97046
558.8	0.96832
559.0	0.96629
559.2	0.96405
559.4	0.96321
559.6	0.96275
559.8	0.96252
560.0	0.9629
560.2	0.964
560.4	0.96583
560.6	0.96622
560.8	0.96577
561.0	0.9643
561.2	0.96264
561.4	0.96081
561.6	0.95766
561.8	0.95458
562.0	0.95228
562.2	0.95053
562.4	0.95009
562.6	0.95056
562.8	0.95114
563.0	0.95277
563.2	0.95523
563.4	0.95752
563.6	0.96022
563.8	0.9606
564.0	0.96153
564.2	0.96059
564.4	0.95937
564.6	0.95779
564.8	0.95596
565.0	0.95447
565.2	0.95364
565.4	0.95367
565.6	0.95481
565.8	0.95637
566.0	0.95875
566.2	0.96171
566.4	0.96495
566.6	0.96817
566.8	0.97074
567.0	0.97161
567.2	0.97143
567.4	0.9707
567.6	0.97054
567.8	0.9692
568.0	0.96648
568.2	0.96476
568.4	0.96383
568.6	0.96337
568.8	0.96452
569.0	0.9649
569.2	0.96546
569.4	0.96635
569.6	0.96713
569.8	0.96743
570.0	0.96642
570.2	0.96452
570.4	0.96181
570.6	0.95866
570.8	0.95593
571.0	0.95302
571.2	0.95061
571.4	0.94883
571.6	0.9478
571.8	0.94845
572.0	0.94896
572.2	0.95132
572.4	0.95243
572.6	0.95415
572.8	0.95622
573.0	0.95703
573.2	0.95745
573.4	0.95691
573.6	0.95541
573.8	0.95298
574.0	0.95244
574.2	0.95163
574.4	0.95098
574.6	0.95132
574.8	0.95205
575.0	0.95416
575.2	0.95763
575.4	0.96098
575.6	0.96383
575.8	0.96637
576.0	0.96899
576.2	0.97052
576.4	0.97084
576.6	0.97092
576.8	0.97013
577.0	0.96859
577.2	0.96679
577.4	0.96599
577.6	0.96526
577.8	0.96527
578.0	0.96586
578.2	0.96645
578.4	0.9678
578.6	0.96985
578.8	0.97142
579.0	0.97225
579.2	0.97244
579.4	0.97159
579.6	0.96931
579.8	0.96777
580.0	0.96541
580.2	0.96259
580.4	0.95937
580.6	0.95673
580.8	0.95517
581.0	0.95462
581.2	0.95485
581.4	0.95494
581.6	0.95559
581.8	0.9573
582.0	0.95903
582.2	0.96053
582.4	0.96089
582.6	0.96145
582.8	0.96054
583.0	0.95991
583.2	0.959
583.4	0.95797
583.6	0.95653
583.8	0.95584
584.0	0.95583
584.2	0.95644
584.4	0.95808
584.6	0.9606
584.8	0.96244
585.0	0.96483
585.2	0.96656
585.4	0.96894
585.6	0.97027
585.8	0.97119
586.0	0.97034
586.2	0.96983
586.4	0.96832
586.6	0.96636
586.8	0.9662
587.0	0.96478
587.2	0.96346
587.4	0.96353
587.6	0.96383
587.8	0.96541
588.0	0.96746
588.2	0.96868
588.4	0.97044
588.6	0.97146
588.8	0.97199
589.0	0.9719
589.2	0.97181
589.4	0.97032
589.6	0.96801
589.8	0.96555
590.0	0.96328
590.2	0.96136
590.4	0.95991
590.6	0.95953
590.8	0.95876
591.0	0.95903
591.2	0.95994
591.4	0.96128
591.6	0.96279
591.8	0.96419
592.0	0.96569
592.2	0.96536
592.4	0.96448
592.6	0.96382
592.8	0.96271
593.0	0.96112
593.2	0.95934
593.4	0.95687
593.6	0.95536
593.8	0.95431
594.0	0.95457
594.2	0.95521
594.4	0.95639
594.6	0.95735
594.8	0.95988
595.0	0.96248
595.2	0.96462
595.4	0.96673
595.6	0.96765
595.8	0.96873
596.0	0.96808
596.2	0.96858
596.4	0.96763
596.6	0.96737
596.8	0.96616
597.0	0.96589
597.2	0.96459
597.4	0.96479
597.6	0.96552
597.8	0.96627
598.0	0.96772
598.2	0.96915
598.4	0.96956
598.6	0.97044
598.8	0.97036
599.0	0.9707
599.2	0.96979
599.4	0.96807
599.6	0.96619
599.8	0.96389
600.0	0.96146
600.2	0.96019
600.4	0.95836
600.6	0.95727
600.8	0.95641
601.0	0.95572
601.2	0.95609
601.4	0.95698
601.6	0.95782
601.8	0.95895
602.0	0.95927
602.2	0.95973
602.4	0.95909
602.6	0.95897
602.8	0.95843
603.0	0.95774
603.2	0.95611
603.4	0.955
603.6	0.95338
603.8	0.95276
604.0	0.95337
604.2	0.95423
604.4	0.95542
604.6	0.95623
604.8	0.95768
605.0	0.95926
605.2	0.96146
605.4	0.96358
605.6	0.96495
605.8	0.96559
606.0	0.96534
606.2	0.96543
606.4	0.96512
606.6	0.96477
606.8	0.96411
607.0	0.9633
607.2	0.96329
607.4	0.96305
607.6	0.96388
607.8	0.96521
608.0	0.96728
608.2	0.9703
608.4	0.97058
608.6	0.97298
608.8	0.97284
609.0	0.9737
609.2	0.97362
609.4	0.97266
609.6	0.97032
609.8	0.96834
610.0	0.96585
610.2	0.96358
610.4	0.96139
610.6	0.96014
610.8	0.95842
611.0	0.95843
611.2	0.95718
611.4	0.95875
611.6	0.95899
611.8	0.96026
612.0	0.96107
612.2	0.96134
612.4	0.962
612.6	0.96198
612.8	0.9609
613.0	0.96084
613.2	0.95864
613.4	0.95658
613.6	0.95553
613.8	0.95277
614.0	0.95143
614.2	0.95064
614.4	0.95022
614.6	0.95109
614.8	0.95154
615.0	0.95304
615.2	0.95361
615.4	0.95592
615.6	0.95829
615.8	0.96013
616.0	0.96199
616.2	0.96243
616.4	0.96283
616.6	0.9626
616.8	0.96155
617.0	0.96123
617.2	0.95921
617.4	0.95828
617.6	0.95779
617.8	0.9572
618.0	0.95614
618.2	0.95724
618.4	0.9581
618.6	0.96095
618.8	0.96268
619.0	0.96504
619.2	0.96645
619.4	0.969
619.6	0.97066
619.8	0.97144
620.0	0.97239
620.2	0.9714
620.4	0.97068
620.6	0.96937
620.8	0.96663
621.0	0.96481
621.2	0.96271
621.4	0.96166
621.6	0.96068
621.8	0.95987
622.0	0.95843
622.2	0.95887
622.4	0.95923
622.6	0.95949
622.8	0.96166
623.0	0.96211
623.2	0.9632
623.4	0.96256
623.6	0.96137
623.8	0.96148
624.0	0.96002
624.2	0.9587
624.4	0.95677
624.6	0.95468
624.8	0.9531
625.0	0.95122
625.2	0.94949
625.4	0.94828
625.6	0.94901
625.8	0.94967
626.0	0.9502
626.2	0.95216
626.4	0.95363
626.6	0.95547
626.8	0.95739
627.0	0.95935
627.2	0.96106
